# Geiger-MÃ¼ller Kennlinie
#
# t = 60 s
#U[V]	N[Imp]
320	9672
330	9689
340	9580
350	9837
360	9886
370	10041
380	9996
390	9943
400	9995
410	9980
420	9986
430	9960
440	10219
450	10264
460	10174
470	10035
480	10350
490	10290
500	10151
510	10110
520	10255
530	10151
540	10351
550	10184
560	10137
570	10186
580	10171
590	10171
600	10253
610	10368
620	10365
630	10224
640	10338
650	10493
660	10467
670	10640
680	10939
690	11159
700	11547

